# %ECSV 0.9
# ---
# datatype:
# - {name: wavelength, unit: Angstrom, datatype: float64}
# - {name: flux, unit: erg / (Angstrom cm2 s), datatype: float64}
# meta: !!omap
# - {description: Smooth solar spectrum for testing.}
wavelength flux
3516.5485 99.6668307692
3549.0455 107.250390769
3581.5425 87.3239846154
3614.0395 101.8156
3646.5365 110.143027692
3679.0335 120.202381538
3711.5305 117.879883077
3744.0275 96.25288
3776.5245 122.349529231
3809.0215 107.79808
3841.5185 86.2449938462
3874.0155 99.2441353846
3906.5125 124.098772308
3939.0095 92.8250615385
3971.5065 108.958184615
4004.0035 168.845907692
4036.5005 168.575581538
4068.9975 164.215187692
4101.4945 168.710830769
4133.9915 176.658307692
4166.4885 174.402126154
4198.9855 173.208609231
4231.4825 169.864003077
4263.9795 166.485070769
4296.4765 142.720313846
4328.9735 168.301996914
4361.4705 179.764612308
4393.9675 172.299987692
4426.4645 193.779347692
4458.9615 191.929218462
4491.4585 204.719483077
4523.9555 201.868098462
4556.4525 203.818206154
4588.9495 202.438259259
4621.4465 206.561603077
4653.9435 199.028486154
4686.4405 198.723286154
4718.9375 199.187224615
4751.4345 201.219873846
4783.9315 204.5442
4816.4285 205.037575385
4848.9255 188.506796923
4881.4225 185.835513846
4913.9195 193.594753846
4946.4165 196.558073846
4978.9135 196.462218462
5011.4105 187.116163077
5043.9075 192.979624615
5076.4045 193.061704615
5108.9015 194.472221538
5141.3985 187.458076923
5173.8955 171.015092308
5206.3925 184.75144
5238.8895 190.603698462
5271.3865 181.431313846
5303.8835 193.493652308
5336.3805 187.246381538
5368.8775 190.740295385
5401.3745 183.659895385
5433.8715 186.603163077
5466.3685 187.166793846
5498.8655 187.555061538
5531.3625 187.503766154
5563.8595 185.73636
5596.3565 181.768276923
5628.8535 185.029809231
5661.3505 183.791916667
5693.8475 182.366923077
5726.3445 186.391
5758.8415 184.968307692
5791.3385 182.335153846
5823.8355 186.122769231
5856.3325 182.849615385
5888.8295 174.162615385
5921.3265 180.129230769
5953.8235 178.929230769
5986.3205 177.196769231
6018.8175 174.786923077
6051.3145 177.255384615
6083.8115 174.961769231
6116.3085 171.861923077
6148.8055 169.216615385
6181.3025 169.957461538
6213.7995 171.181846154
6246.2965 165.926538462
6278.7935 169.529230769
6311.2905 165.255384615
6343.7875 165.587384615
6376.2845 165.480884615
6408.7815 162.588615385
6441.2785 162.505576923
6473.7755 159.394615385
6506.2725 159.245653846
6538.7695 156.736961538
6571.2665 145.053692308
6603.7635 156.256769231
6636.2605 156.002423077
6668.7575 154.477230769
6701.2545 153.181192308
6733.7515 151.902391975
6766.2485 150.942615385
6798.7455 149.743346154
6831.2425 147.764346154
6863.7395 146.402923077
6896.2365 145.848615385
6928.7335 144.793692308
6961.2305 142.788115385
6993.7275 141.396961538
7026.2245 139.260076923
7058.7215 140.861461538
7091.2185 138.902192308
7123.7155 137.909576923
7156.2125 136.344384615
7188.7095 133.567576923
7221.2065 134.115423077
7253.7035 134.953307692
7286.2005 132.918384615
7318.6975 132.284346154
7351.1945 131.109961538
7383.6915 128.868538462
7416.1885 127.124769231
7448.6855 128.234615385
7481.1825 127.66
7513.6795 126.305076923
7546.1765 125.640230769
7578.6735 124.557038462
7611.1705 123.945961538
7643.6675 122.696153846
7676.1645 119.569692308
7708.6615 120.545076923
7741.1585 119.852461538
7773.6555 119.327538462
7806.1525 118.668846154
7838.6495 117.926268519
7871.1465 117.7835
7903.6435 116.412443077
7936.1405 114.184512308
7968.6375 114.580292308
8001.1345 113.954352308
8033.6315 112.735690769
8066.1285 111.65056
8098.6255 110.582501538
8131.1225 111.397101538
8163.6195 110.322566154
8196.1165 107.422012308
8228.6135 107.601667692
8261.1105 107.632683077
8293.6075 107.228
8326.1045 104.715996923
8358.6015 105.150686154
8391.0985 104.44602
8423.5955 103.497387692
8456.0925 102.933447692
8488.5895 98.9368246154
8521.0865 98.2342646154
8553.5835 92.9431230769
8586.0805 100.137024615
8618.5775 99.7598887097
8651.0745 95.4280215385
8683.5715 93.5040907692
8716.0685 98.1467061538
8748.5655 98.079
8781.0625 97.06342
8813.5595 95.62398
8846.0565 95.64384
8878.5535 94.8543630769
8911.0505 94.2589506173
8943.5475 93.5492907692
8976.0445 92.8553384615
9008.5415 90.6696476923
9041.0385 89.8549907692
9073.5355 88.2248707692
9106.0325 86.7855507692
9138.5295 87.1062861538
9171.0265 86.0023353846
9203.5235 84.0332323077
9236.0205 82.3246707692
9268.5175 82.8109707692
9301.0145 82.94212
9333.5115 82.7049076923
9366.0085 80.7739384615
9398.5055 80.3814369231
9431.0025 79.0295661538
9463.4995 79.4096646154
9495.9965 77.8642723077
9528.4935 77.0855584615
9560.9905 76.7542676923
9593.4875 77.0174953846
9625.9845 76.6653892308
9658.4815 76.12914
9690.9785 76.9625446154
9723.4755 76.2659569231
9755.9725 75.7916030769
9788.4695 76.6995876923
9820.9665 76.4452430769
9853.4635 76.5874076923
9885.9605 76.3185169231
9918.4575 76.0071338462
9950.9545 75.2845507692
9983.4515 74.3102510402
